# from G. Xiao-Yong et al.
# "Spectroscopic ellipsometric study of the optical properties of Ag2O film prepared by direct-current magnetron reactive sputtering"
# Chin. Phys. B Vol. 19, No. 9 (2010)
# nm n k
300.0	2.203	2.083
306.9	2.233	2.134
313.8	2.357	2.296
320.7	2.631	2.435
327.6	3.024	2.451
334.5	3.419	2.327
341.4	3.795	1.971
348.3	3.978	1.639
355.2	4.017	1.206
362.1	3.963	0.831
369.0	3.832	0.579
375.9	3.671	0.415
382.8	3.51	0.307
389.7	3.38	0.211
396.6	3.266	0.159
403.5	3.181	0.134
410.4	3.107	0.117
417.3	3.034	0.097
424.2	2.978	0.086
431.1	2.932	0.078
438.0	2.885	0.067
444.9	2.844	0.064
451.8	2.808	0.061
458.7	2.776	0.058
465.6	2.75	0.058
472.5	2.729	0.057
479.4	2.709	0.054
486.3	2.691	0.053
493.2	2.675	0.053
500.1	2.662	0.05
507.0	2.65	0.048
513.9	2.638	0.048
520.8	2.627	0.049
527.7	2.615	0.049
534.6	2.604	0.049
541.5	2.593	0.049
548.4	2.585	0.049
555.3	2.577	0.048
562.2	2.571	0.048
569.1	2.564	0.049
576.0	2.558	0.049
582.9	2.551	0.049
589.8	2.544	0.046
596.7	2.537	0.042
603.6	2.531	0.039
610.5	2.524	0.037
617.4	2.519	0.036
624.3	2.515	0.034
631.2	2.511	0.03
638.1	2.508	0.027
645.0	2.503	0.025
651.9	2.498	0.024
658.8	2.493	0.024
665.7	2.488	0.025
672.6	2.484	0.025
679.5	2.48	0.024
686.4	2.477	0.023
693.3	2.474	0.021
700.2	2.471	0.02
707.1	2.467	0.019
714.0	2.464	0.018
720.9	2.461	0.017
727.8	2.457	0.016
734.7	2.454	0.013
741.6	2.451	0.011
748.5	2.447	0.008422
755.4	2.445	0.006206
762.3	2.442	0.0045
769.2	2.439	0.003276
776.1	2.437	0.002425
783.0	2.434	0.001845
789.9	2.432	0.001446
796.8	2.43	0.001144
803.7	2.427	8.836E-4
810.6	2.425	6.56E-4
817.5	2.423	4.606E-4
824.4	2.421	2.965E-4
831.3	2.419	1.627E-4
838.2	2.417	5.846E-5
845.1	2.415	0.0
852.0	2.413	0.0
858.9	2.411	0.0
865.8	2.409	0.0
872.7	2.407	0.0
879.6	2.405	0.0
886.5	2.403	0.0
893.4	2.402	0.0
900.3	2.4	0.0
907.2	2.398	2.939E-6
914.1	2.396	2.091E-5
921.0	2.395	3.506E-5
927.9	2.393	4.563E-5
934.8	2.391	5.285E-5
941.7	2.39	5.691E-5
948.6	2.389	5.803E-5
955.5	2.387	5.638E-5
962.4	2.386	5.214E-5
969.3	2.385	4.548E-5
976.2	2.383	3.656E-5
983.1	2.382	2.552E-5
990.0	2.381	1.25E-5
