# green color filter
# wavelength(nm)  n  k
3.80000e+02	1.60000e+00	4.33908e-02
3.85000e+02	1.60000e+00	7.70912e-02
3.90000e+02	1.60000e+00	9.24190e-02
3.95000e+02	1.60000e+00	9.62942e-02
4.00000e+02	1.60000e+00	1.00196e-01
4.05000e+02	1.60000e+00	1.07259e-01
4.10000e+02	1.60000e+00	1.11520e-01
4.15000e+02	1.60000e+00	1.14150e-01
4.20000e+02	1.60000e+00	1.18299e-01
4.25000e+02	1.60000e+00	1.27546e-01
4.30000e+02	1.60000e+00	1.28419e-01
4.35000e+02	1.60000e+00	1.18686e-01
4.40000e+02	1.60000e+00	1.07305e-01
4.45000e+02	1.60000e+00	9.49947e-02
4.50000e+02	1.60000e+00	9.49764e-02
4.55000e+02	1.60000e+00	1.03620e-01
4.60000e+02	1.60000e+00	1.06148e-01
4.65000e+02	1.60000e+00	9.69431e-02
4.70000e+02	1.60000e+00	8.07898e-02
4.75000e+02	1.60000e+00	5.22649e-02
4.80000e+02	1.60000e+00	3.16274e-02
4.85000e+02	1.60000e+00	2.01253e-02
4.90000e+02	1.60000e+00	1.52839e-02
4.95000e+02	1.60000e+00	1.13322e-02
5.00000e+02	1.60000e+00	8.26898e-03
5.05000e+02	1.60000e+00	6.22056e-03
5.10000e+02	1.60000e+00	5.02221e-03
5.15000e+02	1.60000e+00	4.53045e-03
5.20000e+02	1.60000e+00	4.27701e-03
5.25000e+02	1.60000e+00	4.19138e-03
5.30000e+02	1.60000e+00	4.18987e-03
5.35000e+02	1.60000e+00	4.60157e-03
5.40000e+02	1.60000e+00	4.83241e-03
5.45000e+02	1.60000e+00	4.99340e-03
5.50000e+02	1.60000e+00	5.32083e-03
5.55000e+02	1.60000e+00	6.18130e-03
5.60000e+02	1.60000e+00	7.37050e-03
5.65000e+02	1.60000e+00	9.01397e-03
5.70000e+02	1.60000e+00	1.08427e-02
5.75000e+02	1.60000e+00	1.29628e-02
5.80000e+02	1.60000e+00	1.55049e-02
5.85000e+02	1.60000e+00	1.90121e-02
5.90000e+02	1.60000e+00	2.40372e-02
5.95000e+02	1.60000e+00	2.91035e-02
6.00000e+02	1.60000e+00	3.43609e-02
6.05000e+02	1.60000e+00	4.46235e-02
6.10000e+02	1.60000e+00	5.51345e-02
6.15000e+02	1.60000e+00	7.06262e-02
6.20000e+02	1.60000e+00	8.54668e-02
6.25000e+02	1.60000e+00	1.01624e-01
6.30000e+02	1.60000e+00	1.18639e-01
6.35000e+02	1.60000e+00	1.32699e-01
6.40000e+02	1.60000e+00	1.44731e-01
6.45000e+02	1.60000e+00	1.55242e-01
6.50000e+02	1.60000e+00	1.64819e-01
6.55000e+02	1.60000e+00	1.73858e-01
6.60000e+02	1.60000e+00	1.80904e-01
6.65000e+02	1.60000e+00	1.86686e-01
6.70000e+02	1.60000e+00	1.87076e-01
6.75000e+02	1.60000e+00	1.80192e-01
6.80000e+02	1.60000e+00	1.73348e-01
6.85000e+02	1.60000e+00	1.64996e-01
6.90000e+02	1.60000e+00	1.51965e-01
6.95000e+02	1.60000e+00	1.36825e-01
7.00000e+02	1.60000e+00	1.24329e-01
7.05000e+02	1.60000e+00	1.15137e-01
7.10000e+02	1.60000e+00	1.08342e-01
7.15000e+02	1.60000e+00	1.03651e-01
7.20000e+02	1.60000e+00	1.00896e-01
7.25000e+02	1.60000e+00	1.03054e-01
7.30000e+02	1.60000e+00	1.05251e-01
7.35000e+02	1.60000e+00	1.05946e-01
7.40000e+02	1.60000e+00	1.06597e-01
7.45000e+02	1.60000e+00	1.02748e-01
7.50000e+02	1.60000e+00	9.76741e-02
7.55000e+02	1.60000e+00	9.30200e-02
7.60000e+02	1.60000e+00	8.41597e-02
7.65000e+02	1.60000e+00	7.57576e-02
7.70000e+02	1.60000e+00	6.99794e-02
7.75000e+02	1.60000e+00	6.34516e-02
7.80000e+02	1.60000e+00	6.34837e-02
