# red color filter
# wavelength(nm)  n  k
3.80000e+02	1.60000e+00	3.87845e-02
3.85000e+02	1.60000e+00	3.55639e-02
3.90000e+02	1.60000e+00	3.64270e-02
3.95000e+02	1.60000e+00	3.95895e-02
4.00000e+02	1.60000e+00	4.44367e-02
4.05000e+02	1.60000e+00	5.03287e-02
4.10000e+02	1.60000e+00	5.85844e-02
4.15000e+02	1.60000e+00	6.80201e-02
4.20000e+02	1.60000e+00	7.89968e-02
4.25000e+02	1.60000e+00	9.08830e-02
4.30000e+02	1.60000e+00	1.03961e-01
4.35000e+02	1.60000e+00	1.14882e-01
4.40000e+02	1.60000e+00	1.25148e-01
4.45000e+02	1.60000e+00	1.38336e-01
4.50000e+02	1.60000e+00	1.56158e-01
4.55000e+02	1.60000e+00	1.74981e-01
4.60000e+02	1.60000e+00	1.97033e-01
4.65000e+02	1.60000e+00	2.19054e-01
4.70000e+02	1.60000e+00	2.45606e-01
4.75000e+02	1.60000e+00	2.61584e-01
4.80000e+02	1.60000e+00	2.64338e-01
4.85000e+02	1.60000e+00	2.67091e-01
4.90000e+02	1.60000e+00	2.69845e-01
4.95000e+02	1.60000e+00	2.72598e-01
5.00000e+02	1.60000e+00	2.75352e-01
5.05000e+02	1.60000e+00	2.78105e-01
5.10000e+02	1.60000e+00	2.80859e-01
5.15000e+02	1.60000e+00	2.83612e-01
5.20000e+02	1.60000e+00	2.86366e-01
5.25000e+02	1.60000e+00	2.89119e-01
5.30000e+02	1.60000e+00	2.91873e-01
5.35000e+02	1.60000e+00	2.94626e-01
5.40000e+02	1.60000e+00	2.97380e-01
5.45000e+02	1.60000e+00	3.00133e-01
5.50000e+02	1.60000e+00	3.02887e-01
5.55000e+02	1.60000e+00	3.05640e-01
5.60000e+02	1.60000e+00	3.08394e-01
5.65000e+02	1.60000e+00	3.11147e-01
5.70000e+02	1.60000e+00	3.13901e-01
5.75000e+02	1.60000e+00	3.16654e-01
5.80000e+02	1.60000e+00	3.19408e-01
5.85000e+02	1.60000e+00	1.67767e-01
5.90000e+02	1.60000e+00	7.12971e-02
5.95000e+02	1.60000e+00	2.25492e-02
6.00000e+02	1.60000e+00	1.34753e-02
6.05000e+02	1.60000e+00	8.30575e-03
6.10000e+02	1.60000e+00	5.32480e-03
6.15000e+02	1.60000e+00	4.16894e-03
6.20000e+02	1.60000e+00	4.26427e-03
6.25000e+02	1.60000e+00	4.88253e-03
6.30000e+02	1.60000e+00	5.12592e-03
6.35000e+02	1.60000e+00	5.24455e-03
6.40000e+02	1.60000e+00	4.80641e-03
6.45000e+02	1.60000e+00	4.10966e-03
6.50000e+02	1.60000e+00	3.65732e-03
6.55000e+02	1.60000e+00	3.37468e-03
6.60000e+02	1.60000e+00	3.21819e-03
6.65000e+02	1.60000e+00	3.32010e-03
6.70000e+02	1.60000e+00	4.04839e-03
6.75000e+02	1.60000e+00	4.48707e-03
6.80000e+02	1.60000e+00	4.82487e-03
6.85000e+02	1.60000e+00	5.16422e-03
6.90000e+02	1.60000e+00	5.39818e-03
6.95000e+02	1.60000e+00	5.25932e-03
7.00000e+02	1.60000e+00	4.90819e-03
7.05000e+02	1.60000e+00	4.27639e-03
7.10000e+02	1.60000e+00	3.90961e-03
7.15000e+02	1.60000e+00	3.91475e-03
7.20000e+02	1.60000e+00	3.88390e-03
7.25000e+02	1.60000e+00	3.70357e-03
7.30000e+02	1.60000e+00	3.87149e-03
7.35000e+02	1.60000e+00	4.39297e-03
7.40000e+02	1.60000e+00	5.06884e-03
7.45000e+02	1.60000e+00	5.66859e-03
7.50000e+02	1.60000e+00	6.07250e-03
7.55000e+02	1.60000e+00	6.31683e-03
7.60000e+02	1.60000e+00	6.39393e-03
7.65000e+02	1.60000e+00	6.40827e-03
7.70000e+02	1.60000e+00	6.25779e-03
7.75000e+02	1.60000e+00	5.97427e-03
7.80000e+02	1.60000e+00	5.67634e-03
