# refractive index file of NBPhen
#
# published in: A. Salehi et al., Adv. Optical Mater. 2017, 1700197, DOI: 10.1002/adom.201700197
#
# Wavelength (nm)	n_o	k_o	n_e	k_e
400.92	2.1684	0.00854	1.8575	0.01117
402.51	2.1593	0.00847	1.8445	0.01115
404.09	2.1507	0.00841	1.833	0.01112
405.68	2.1424	0.00834	1.8228	0.01108
407.26	2.1345	0.00828	1.8135	0.01104
408.85	2.1269	0.00821	1.8052	0.011
410.44	2.1196	0.00815	1.7975	0.01095
412.02	2.1126	0.00809	1.7906	0.0109
413.61	2.1059	0.00802	1.7842	0.01085
415.2	2.0994	0.00796	1.7783	0.0108
416.78	2.0932	0.00789	1.7729	0.01074
418.37	2.0872	0.00783	1.7678	0.01068
419.95	2.0814	0.00777	1.7631	0.01062
421.54	2.0758	0.0077	1.7587	0.01056
423.13	2.0704	0.00764	1.7546	0.0105
424.71	2.0652	0.00758	1.7508	0.01044
426.3	2.0602	0.00752	1.7471	0.01038
427.89	2.0553	0.00746	1.7437	0.01032
429.47	2.0505	0.0074	1.7405	0.01025
431.06	2.046	0.00734	1.7374	0.01019
432.64	2.0415	0.00728	1.7346	0.01013
434.23	2.0372	0.00722	1.7318	0.01007
435.82	2.0331	0.00716	1.7292	0.01001
437.4	2.029	0.0071	1.7267	0.00994
438.99	2.0251	0.00704	1.7244	0.00988
440.57	2.0212	0.00699	1.7221	0.00982
442.16	2.0175	0.00693	1.72	0.00976
443.75	2.0139	0.00687	1.7179	0.0097
445.33	2.0104	0.00682	1.7159	0.00964
446.92	2.007	0.00676	1.714	0.00958
448.5	2.0036	0.00671	1.7122	0.00952
450.09	2.0004	0.00665	1.7104	0.00946
451.67	1.9972	0.0066	1.7088	0.0094
453.26	1.9942	0.00655	1.7071	0.00934
454.85	1.9912	0.0065	1.7056	0.00928
456.43	1.9882	0.00645	1.7041	0.00922
458.02	1.9854	0.00639	1.7026	0.00917
459.6	1.9826	0.00634	1.7012	0.00911
461.19	1.9798	0.00629	1.6998	0.00905
462.77	1.9772	0.00625	1.6985	0.009
464.36	1.9746	0.0062	1.6973	0.00894
465.95	1.972	0.00615	1.696	0.00889
467.53	1.9696	0.0061	1.6948	0.00883
469.12	1.9671	0.00605	1.6937	0.00878
470.7	1.9648	0.00601	1.6925	0.00873
472.29	1.9624	0.00596	1.6915	0.00867
473.87	1.9602	0.00592	1.6904	0.00862
475.46	1.9579	0.00587	1.6894	0.00857
477.04	1.9558	0.00583	1.6884	0.00852
478.63	1.9536	0.00578	1.6874	0.00847
480.21	1.9515	0.00574	1.6864	0.00842
481.8	1.9495	0.0057	1.6855	0.00837
483.39	1.9475	0.00565	1.6846	0.00832
484.97	1.9455	0.00561	1.6837	0.00827
486.56	1.9436	0.00557	1.6829	0.00822
488.14	1.9417	0.00553	1.682	0.00817
489.73	1.9398	0.00549	1.6812	0.00812
491.31	1.938	0.00545	1.6804	0.00808
492.9	1.9362	0.00541	1.6797	0.00803
494.48	1.9345	0.00537	1.6789	0.00799
496.07	1.9328	0.00533	1.6782	0.00794
497.65	1.9311	0.00529	1.6774	0.00789
499.24	1.9294	0.00525	1.6767	0.00785
500.82	1.9278	0.00522	1.676	0.00781
502.41	1.9262	0.00518	1.6754	0.00776
503.99	1.9247	0.00514	1.6747	0.00772
505.58	1.9231	0.00511	1.674	0.00767
507.16	1.9216	0.00507	1.6734	0.00763
508.75	1.9201	0.00503	1.6728	0.00759
510.33	1.9186	0.005	1.6722	0.00755
511.91	1.9172	0.00496	1.6716	0.00751
513.5	1.9158	0.00493	1.671	0.00747
515.08	1.9144	0.0049	1.6704	0.00743
516.67	1.913	0.00486	1.6699	0.00739
518.25	1.9117	0.00483	1.6693	0.00735
519.84	1.9104	0.0048	1.6688	0.00731
521.42	1.9091	0.00476	1.6682	0.00727
523.01	1.9078	0.00473	1.6677	0.00723
524.59	1.9065	0.0047	1.6672	0.00719
526.18	1.9053	0.00467	1.6667	0.00715
527.76	1.9041	0.00464	1.6662	0.00711
529.34	1.9029	0.00461	1.6657	0.00708
530.93	1.9017	0.00458	1.6652	0.00704
532.51	1.9005	0.00455	1.6648	0.007
534.1	1.8994	0.00452	1.6643	0.00697
535.68	1.8982	0.00449	1.6638	0.00693
537.26	1.8971	0.00446	1.6634	0.0069
538.85	1.896	0.00443	1.663	0.00686
540.43	1.8949	0.0044	1.6625	0.00683
542.02	1.8939	0.00437	1.6621	0.00679
543.6	1.8928	0.00435	1.6617	0.00676
545.18	1.8918	0.00432	1.6613	0.00673
546.77	1.8908	0.00429	1.6609	0.00669
548.35	1.8898	0.00426	1.6605	0.00666
549.94	1.8888	0.00424	1.6601	0.00663
551.52	1.8878	0.00421	1.6597	0.00659
553.1	1.8868	0.00419	1.6593	0.00656
554.69	1.8859	0.00416	1.6589	0.00653
556.27	1.8849	0.00413	1.6586	0.0065
557.85	1.884	0.00411	1.6582	0.00647
559.44	1.8831	0.00408	1.6578	0.00643
561.02	1.8822	0.00406	1.6575	0.0064
562.6	1.8813	0.00403	1.6571	0.00637
564.19	1.8804	0.00401	1.6568	0.00634
565.77	1.8796	0.00399	1.6565	0.00631
567.35	1.8787	0.00396	1.6561	0.00628
568.94	1.8779	0.00394	1.6558	0.00625
570.52	1.877	0.00392	1.6555	0.00622
572.1	1.8762	0.00389	1.6552	0.0062
573.69	1.8754	0.00387	1.6548	0.00617
575.27	1.8746	0.00385	1.6545	0.00614
576.85	1.8738	0.00383	1.6542	0.00611
578.43	1.873	0.0038	1.6539	0.00608
580.02	1.8723	0.00378	1.6536	0.00606
581.6	1.8715	0.00376	1.6533	0.00603
583.18	1.8708	0.00374	1.653	0.006
584.77	1.87	0.00372	1.6528	0.00597
586.35	1.8693	0.0037	1.6525	0.00595
587.93	1.8686	0.00367	1.6522	0.00592
589.51	1.8678	0.00365	1.6519	0.00589
591.09	1.8671	0.00363	1.6516	0.00587
592.68	1.8664	0.00361	1.6514	0.00584
594.26	1.8657	0.00359	1.6511	0.00582
595.84	1.8651	0.00357	1.6508	0.00579
597.42	1.8644	0.00355	1.6506	0.00577
599.01	1.8637	0.00353	1.6503	0.00574
600.59	1.8631	0.00352	1.6501	0.00572
602.17	1.8624	0.0035	1.6498	0.00569
603.75	1.8618	0.00348	1.6496	0.00567
605.33	1.8611	0.00346	1.6493	0.00564
606.92	1.8605	0.00344	1.6491	0.00562
608.5	1.8599	0.00342	1.6489	0.0056
610.08	1.8593	0.0034	1.6486	0.00557
611.66	1.8587	0.00339	1.6484	0.00555
613.24	1.8581	0.00337	1.6482	0.00553
614.82	1.8575	0.00335	1.6479	0.0055
616.41	1.8569	0.00333	1.6477	0.00548
617.99	1.8563	0.00332	1.6475	0.00546
619.57	1.8557	0.0033	1.6473	0.00544
621.15	1.8552	0.00328	1.647	0.00541
622.73	1.8546	0.00326	1.6468	0.00539
624.31	1.854	0.00325	1.6466	0.00537
625.89	1.8535	0.00323	1.6464	0.00535
627.47	1.8529	0.00321	1.6462	0.00533
629.06	1.8524	0.0032	1.646	0.0053
630.64	1.8519	0.00318	1.6458	0.00528
632.22	1.8513	0.00317	1.6456	0.00526
633.8	1.8508	0.00315	1.6454	0.00524
635.38	1.8503	0.00314	1.6452	0.00522
636.96	1.8498	0.00312	1.645	0.0052
638.54	1.8493	0.0031	1.6448	0.00518
640.12	1.8488	0.00309	1.6446	0.00516
641.7	1.8483	0.00307	1.6444	0.00514
643.28	1.8478	0.00306	1.6442	0.00512
644.86	1.8473	0.00304	1.644	0.0051
646.44	1.8468	0.00303	1.6439	0.00508
648.02	1.8463	0.00301	1.6437	0.00506
649.6	1.8459	0.003	1.6435	0.00504
651.18	1.8454	0.00299	1.6433	0.00502
652.76	1.8449	0.00297	1.6432	0.005
654.34	1.8445	0.00296	1.643	0.00498
655.92	1.844	0.00294	1.6428	0.00497
657.5	1.8436	0.00293	1.6426	0.00495
659.08	1.8431	0.00292	1.6425	0.00493
660.66	1.8427	0.0029	1.6423	0.00491
662.24	1.8423	0.00289	1.6421	0.00489
663.82	1.8418	0.00288	1.642	0.00487
665.4	1.8414	0.00286	1.6418	0.00486
666.98	1.841	0.00285	1.6416	0.00484
668.56	1.8406	0.00284	1.6415	0.00482
670.14	1.8401	0.00282	1.6413	0.0048
671.72	1.8397	0.00281	1.6412	0.00479
673.3	1.8393	0.0028	1.641	0.00477
674.88	1.8389	0.00279	1.6409	0.00475
676.45	1.8385	0.00277	1.6407	0.00473
678.03	1.8381	0.00276	1.6406	0.00472
679.61	1.8377	0.00275	1.6404	0.0047
681.19	1.8373	0.00274	1.6403	0.00468
682.77	1.837	0.00272	1.6401	0.00467
684.35	1.8366	0.00271	1.64	0.00465
685.93	1.8362	0.0027	1.6398	0.00464
687.51	1.8358	0.00269	1.6397	0.00462
689.08	1.8355	0.00268	1.6395	0.0046
690.66	1.8351	0.00266	1.6394	0.00459
692.24	1.8347	0.00265	1.6393	0.00457
693.82	1.8344	0.00264	1.6391	0.00456
695.4	1.834	0.00263	1.639	0.00454
696.97	1.8336	0.00262	1.6389	0.00452
698.55	1.8333	0.00261	1.6387	0.00451
700.13	1.8329	0.0026	1.6386	0.00449
701.71	1.8326	0.00259	1.6385	0.00448
703.29	1.8322	0.00258	1.6383	0.00446
704.86	1.8319	0.00256	1.6382	0.00445
706.44	1.8316	0.00255	1.6381	0.00443
708.02	1.8312	0.00254	1.6379	0.00442
709.6	1.8309	0.00253	1.6378	0.0044
711.17	1.8306	0.00252	1.6377	0.00439
712.75	1.8303	0.00251	1.6376	0.00438
714.33	1.8299	0.0025	1.6374	0.00436
715.9	1.8296	0.00249	1.6373	0.00435
717.48	1.8293	0.00248	1.6372	0.00433
719.06	1.829	0.00247	1.6371	0.00432
720.63	1.8287	0.00246	1.637	0.0043
722.21	1.8284	0.00245	1.6369	0.00429
723.79	1.828	0.00244	1.6367	0.00428
725.36	1.8277	0.00243	1.6366	0.00426
726.94	1.8274	0.00242	1.6365	0.00425
728.52	1.8271	0.00241	1.6364	0.00424
730.09	1.8268	0.0024	1.6363	0.00422
731.67	1.8265	0.00239	1.6362	0.00421
733.25	1.8263	0.00238	1.6361	0.0042
734.82	1.826	0.00237	1.6359	0.00418
736.4	1.8257	0.00237	1.6358	0.00417
737.97	1.8254	0.00236	1.6357	0.00416
739.55	1.8251	0.00235	1.6356	0.00414
741.12	1.8248	0.00234	1.6355	0.00413
742.7	1.8245	0.00233	1.6354	0.00412
744.28	1.8243	0.00232	1.6353	0.0041
745.85	1.824	0.00231	1.6352	0.00409
747.43	1.8237	0.0023	1.6351	0.00408
749	1.8235	0.00229	1.635	0.00407
750.58	1.8232	0.00229	1.6349	0.00405
752.15	1.8229	0.00228	1.6348	0.00404
753.73	1.8227	0.00227	1.6347	0.00403
755.3	1.8224	0.00226	1.6346	0.00402
756.88	1.8221	0.00225	1.6345	0.00401
758.45	1.8219	0.00224	1.6344	0.00399
760.03	1.8216	0.00223	1.6343	0.00398
761.6	1.8214	0.00223	1.6342	0.00397
763.17	1.8211	0.00222	1.6341	0.00396
764.75	1.8209	0.00221	1.634	0.00395
766.32	1.8206	0.0022	1.6339	0.00394
767.9	1.8204	0.00219	1.6338	0.00392
769.47	1.8201	0.00219	1.6337	0.00391
771.04	1.8199	0.00218	1.6336	0.0039
772.62	1.8196	0.00217	1.6335	0.00389
774.19	1.8194	0.00216	1.6335	0.00388
775.77	1.8192	0.00215	1.6334	0.00387
777.34	1.8189	0.00215	1.6333	0.00386
778.91	1.8187	0.00214	1.6332	0.00384
780.49	1.8185	0.00213	1.6331	0.00383
782.06	1.8182	0.00212	1.633	0.00382
783.63	1.818	0.00212	1.6329	0.00381
785.21	1.8178	0.00211	1.6328	0.0038
786.78	1.8176	0.0021	1.6328	0.00379
788.35	1.8173	0.00209	1.6327	0.00378
789.92	1.8171	0.00209	1.6326	0.00377
791.5	1.8169	0.00208	1.6325	0.00376
793.07	1.8167	0.00207	1.6324	0.00375
794.64	1.8165	0.00207	1.6323	0.00374
796.21	1.8162	0.00206	1.6323	0.00373
797.79	1.816	0.00205	1.6322	0.00372
799.36	1.8158	0.00205	1.6321	0.00371
800.93	1.8156	0.00204	1.632	0.0037
802.5	1.8154	0.00203	1.6319	0.00369
804.07	1.8152	0.00202	1.6319	0.00368
805.65	1.815	0.00202	1.6318	0.00367
807.22	1.8148	0.00201	1.6317	0.00366
808.79	1.8146	0.002	1.6316	0.00365
810.36	1.8144	0.002	1.6315	0.00364
811.93	1.8142	0.00199	1.6315	0.00363
813.5	1.814	0.00198	1.6314	0.00362
815.07	1.8138	0.00198	1.6313	0.00361
816.64	1.8136	0.00197	1.6312	0.0036
818.22	1.8134	0.00196	1.6312	0.00359
819.79	1.8132	0.00196	1.6311	0.00358
821.36	1.813	0.00195	1.631	0.00357
822.93	1.8128	0.00195	1.6309	0.00356
824.5	1.8126	0.00194	1.6309	0.00355
826.07	1.8124	0.00193	1.6308	0.00354
827.64	1.8123	0.00193	1.6307	0.00353
829.21	1.8121	0.00192	1.6307	0.00352
830.78	1.8119	0.00191	1.6306	0.00351
832.35	1.8117	0.00191	1.6305	0.0035
833.92	1.8115	0.0019	1.6305	0.00349
835.49	1.8113	0.0019	1.6304	0.00348
837.06	1.8112	0.00189	1.6303	0.00348
838.63	1.811	0.00188	1.6302	0.00347
840.2	1.8108	0.00188	1.6302	0.00346
841.77	1.8106	0.00187	1.6301	0.00345
843.33	1.8104	0.00187	1.63	0.00344
844.9	1.8103	0.00186	1.63	0.00343
846.47	1.8101	0.00186	1.6299	0.00342
848.04	1.8099	0.00185	1.6298	0.00341
849.61	1.8098	0.00184	1.6298	0.00341
851.18	1.8096	0.00184	1.6297	0.0034
852.75	1.8094	0.00183	1.6297	0.00339
854.32	1.8093	0.00183	1.6296	0.00338
855.88	1.8091	0.00182	1.6295	0.00337
857.45	1.8089	0.00182	1.6295	0.00336
859.02	1.8088	0.00181	1.6294	0.00335
860.59	1.8086	0.00181	1.6293	0.00335
862.16	1.8084	0.0018	1.6293	0.00334
863.72	1.8083	0.00179	1.6292	0.00333
865.29	1.8081	0.00179	1.6292	0.00332
866.86	1.808	0.00178	1.6291	0.00331
868.43	1.8078	0.00178	1.629	0.00331
869.99	1.8076	0.00177	1.629	0.0033
871.56	1.8075	0.00177	1.6289	0.00329
873.13	1.8073	0.00176	1.6289	0.00328
874.69	1.8072	0.00176	1.6288	0.00327
876.26	1.807	0.00175	1.6287	0.00327
877.83	1.8069	0.00175	1.6287	0.00326
879.39	1.8067	0.00174	1.6286	0.00325
880.96	1.8066	0.00174	1.6286	0.00324
882.53	1.8064	0.00173	1.6285	0.00323
884.09	1.8063	0.00173	1.6285	0.00323
885.66	1.8061	0.00172	1.6284	0.00322
887.22	1.806	0.00172	1.6283	0.00321
888.79	1.8058	0.00171	1.6283	0.0032
890.36	1.8057	0.00171	1.6282	0.0032
891.92	1.8056	0.0017	1.6282	0.00319
893.49	1.8054	0.0017	1.6281	0.00318
895.05	1.8053	0.00169	1.6281	0.00317
896.62	1.8051	0.00169	1.628	0.00317
898.18	1.805	0.00168	1.628	0.00316
899.75	1.8049	0.00168	1.6279	0.00315
901.31	1.8047	0.00167	1.6279	0.00314
902.88	1.8046	0.00167	1.6278	0.00314
904.44	1.8044	0.00167	1.6278	0.00313
906.01	1.8043	0.00166	1.6277	0.00312
907.57	1.8042	0.00166	1.6276	0.00312
909.13	1.804	0.00165	1.6276	0.00311
910.7	1.8039	0.00165	1.6275	0.0031
912.26	1.8038	0.00164	1.6275	0.00309
913.83	1.8036	0.00164	1.6274	0.00309
915.39	1.8035	0.00163	1.6274	0.00308
916.95	1.8034	0.00163	1.6273	0.00307
918.52	1.8032	0.00162	1.6273	0.00307
920.08	1.8031	0.00162	1.6272	0.00306
921.64	1.803	0.00162	1.6272	0.00305
923.21	1.8029	0.00161	1.6271	0.00305
924.77	1.8027	0.00161	1.6271	0.00304
926.33	1.8026	0.0016	1.6271	0.00303
927.89	1.8025	0.0016	1.627	0.00303
929.46	1.8024	0.00159	1.627	0.00302
931.02	1.8022	0.00159	1.6269	0.00301
932.58	1.8021	0.00159	1.6269	0.00301
934.14	1.802	0.00158	1.6268	0.003
935.71	1.8019	0.00158	1.6268	0.00299
937.27	1.8018	0.00157	1.6267	0.00299
938.83	1.8016	0.00157	1.6267	0.00298
940.39	1.8015	0.00157	1.6266	0.00297
941.95	1.8014	0.00156	1.6266	0.00297
943.51	1.8013	0.00156	1.6265	0.00296
945.07	1.8012	0.00155	1.6265	0.00295
946.64	1.801	0.00155	1.6264	0.00295
948.2	1.8009	0.00155	1.6264	0.00294
949.76	1.8008	0.00154	1.6264	0.00294
951.32	1.8007	0.00154	1.6263	0.00293
952.88	1.8006	0.00153	1.6263	0.00292
954.44	1.8005	0.00153	1.6262	0.00292
956	1.8004	0.00153	1.6262	0.00291
957.56	1.8002	0.00152	1.6261	0.0029
959.12	1.8001	0.00152	1.6261	0.0029
960.68	1.8	0.00151	1.6261	0.00289
962.24	1.7999	0.00151	1.626	0.00289
963.8	1.7998	0.00151	1.626	0.00288
965.36	1.7997	0.0015	1.6259	0.00287
966.92	1.7996	0.0015	1.6259	0.00287
968.48	1.7995	0.0015	1.6258	0.00286
970.03	1.7994	0.00149	1.6258	0.00286
971.59	1.7993	0.00149	1.6258	0.00285
973.15	1.7992	0.00148	1.6257	0.00284
974.71	1.7991	0.00148	1.6257	0.00284
976.27	1.7989	0.00148	1.6256	0.00283
977.83	1.7988	0.00147	1.6256	0.00283
979.39	1.7987	0.00147	1.6256	0.00282
980.94	1.7986	0.00147	1.6255	0.00282
982.5	1.7985	0.00146	1.6255	0.00281
984.06	1.7984	0.00146	1.6254	0.0028
985.62	1.7983	0.00146	1.6254	0.0028
987.17	1.7982	0.00145	1.6254	0.00279
988.73	1.7981	0.00145	1.6253	0.00279
990.29	1.798	0.00145	1.6253	0.00278
991.85	1.7979	0.00144	1.6253	0.00278
993.4	1.7978	0.00144	1.6252	0.00277
994.96	1.7977	0.00144	1.6252	0.00276
996.52	1.7976	0.00143	1.6251	0.00276
998.07	1.7975	0.00143	1.6251	0.00275
999.63	1.7974	0.00143	1.6251	0.00275
1010.5	1.7968	0.0014	1.6248	0.00271
1013.9	1.7966	0.0014	1.6247	0.0027
1017.3	1.7964	0.00139	1.6247	0.00269
1020.7	1.7962	0.00138	1.6246	0.00268
1024	1.796	0.00137	1.6245	0.00267
1027.4	1.7958	0.00137	1.6244	0.00265
1030.8	1.7956	0.00136	1.6244	0.00264
1034.2	1.7954	0.00135	1.6243	0.00263
1037.6	1.7952	0.00135	1.6242	0.00262
1040.9	1.795	0.00134	1.6241	0.00261
1044.3	1.7949	0.00134	1.6241	0.0026
1047.7	1.7947	0.00133	1.624	0.00259
1051.1	1.7945	0.00132	1.6239	0.00258
1054.5	1.7943	0.00132	1.6239	0.00257
1057.9	1.7942	0.00131	1.6238	0.00256
1061.3	1.794	0.0013	1.6237	0.00255
1064.6	1.7938	0.0013	1.6237	0.00254
1068	1.7936	0.00129	1.6236	0.00253
1071.4	1.7935	0.00129	1.6235	0.00252
1074.8	1.7933	0.00128	1.6235	0.00251
1078.2	1.7931	0.00127	1.6234	0.0025
1081.6	1.793	0.00127	1.6234	0.00249
1085	1.7928	0.00126	1.6233	0.00248
1088.4	1.7927	0.00126	1.6232	0.00247
1091.8	1.7925	0.00125	1.6232	0.00246
1095.1	1.7924	0.00125	1.6231	0.00245
1098.5	1.7922	0.00124	1.623	0.00244
1101.9	1.792	0.00123	1.623	0.00243
1105.3	1.7919	0.00123	1.6229	0.00242
1108.7	1.7917	0.00122	1.6229	0.00241
1112.1	1.7916	0.00122	1.6228	0.00241
1115.5	1.7914	0.00121	1.6228	0.0024
1118.9	1.7913	0.00121	1.6227	0.00239
1122.3	1.7912	0.0012	1.6226	0.00238
1125.7	1.791	0.0012	1.6226	0.00237
1129.1	1.7909	0.00119	1.6225	0.00236
1132.5	1.7907	0.00119	1.6225	0.00235
1135.9	1.7906	0.00118	1.6224	0.00234
1139.3	1.7905	0.00118	1.6224	0.00234
1142.7	1.7903	0.00117	1.6223	0.00233
1146.1	1.7902	0.00117	1.6223	0.00232
1149.5	1.7901	0.00116	1.6222	0.00231
1152.9	1.7899	0.00116	1.6222	0.0023
1156.3	1.7898	0.00115	1.6221	0.00229
1159.7	1.7897	0.00115	1.6221	0.00229
1163.1	1.7895	0.00114	1.622	0.00228
1166.5	1.7894	0.00114	1.622	0.00227
1169.9	1.7893	0.00113	1.6219	0.00226
1173.3	1.7892	0.00113	1.6219	0.00225
1176.7	1.789	0.00113	1.6218	0.00225
1180.1	1.7889	0.00112	1.6218	0.00224
1183.5	1.7888	0.00112	1.6217	0.00223
1186.9	1.7887	0.00111	1.6217	0.00222
1190.3	1.7885	0.00111	1.6216	0.00221
1193.7	1.7884	0.0011	1.6216	0.00221
1197.1	1.7883	0.0011	1.6215	0.0022
1200.5	1.7882	0.00109	1.6215	0.00219
1204	1.7881	0.00109	1.6215	0.00218
1207.4	1.788	0.00109	1.6214	0.00218
1210.8	1.7879	0.00108	1.6214	0.00217
1214.2	1.7877	0.00108	1.6213	0.00216
1217.6	1.7876	0.00107	1.6213	0.00216
1221	1.7875	0.00107	1.6212	0.00215
1224.4	1.7874	0.00107	1.6212	0.00214
1227.8	1.7873	0.00106	1.6212	0.00213
1231.2	1.7872	0.00106	1.6211	0.00213
1234.7	1.7871	0.00105	1.6211	0.00212
1238.1	1.787	0.00105	1.621	0.00211
1241.5	1.7869	0.00105	1.621	0.00211
1244.9	1.7868	0.00104	1.6209	0.0021
1248.3	1.7867	0.00104	1.6209	0.00209
1251.7	1.7866	0.00103	1.6209	0.00209
1255.1	1.7865	0.00103	1.6208	0.00208
1258.6	1.7864	0.00103	1.6208	0.00207
1262	1.7863	0.00102	1.6208	0.00207
1265.4	1.7862	0.00102	1.6207	0.00206
1268.8	1.7861	0.00102	1.6207	0.00205
1272.2	1.786	0.00101	1.6206	0.00205
1275.7	1.7859	0.00101	1.6206	0.00204
1279.1	1.7858	0.001	1.6206	0.00203
1282.5	1.7857	0.001	1.6205	0.00203
1285.9	1.7856	9.98E-04	1.6205	0.00202
1289.3	1.7855	9.94E-04	1.6205	0.00201
1292.8	1.7854	9.91E-04	1.6204	0.00201
1296.2	1.7853	9.87E-04	1.6204	0.002
1299.6	1.7852	9.84E-04	1.6203	0.002
1303	1.7851	9.80E-04	1.6203	0.00199
1306.5	1.7851	9.77E-04	1.6203	0.00198
1309.9	1.785	9.73E-04	1.6202	0.00198
1313.3	1.7849	9.70E-04	1.6202	0.00197
1316.7	1.7848	9.67E-04	1.6202	0.00197
1320.2	1.7847	9.63E-04	1.6201	0.00196
1323.6	1.7846	9.60E-04	1.6201	0.00195
1327	1.7845	9.57E-04	1.6201	0.00195
1330.5	1.7844	9.54E-04	1.62	0.00194
1333.9	1.7844	9.50E-04	1.62	0.00194
1337.3	1.7843	9.47E-04	1.62	0.00193
1340.7	1.7842	9.44E-04	1.6199	0.00192
1344.2	1.7841	9.41E-04	1.6199	0.00192
1347.6	1.784	9.38E-04	1.6199	0.00191
1351	1.784	9.35E-04	1.6199	0.00191
1354.5	1.7839	9.32E-04	1.6198	0.0019
1357.9	1.7838	9.29E-04	1.6198	0.0019
1361.3	1.7837	9.26E-04	1.6198	0.00189
1364.8	1.7836	9.22E-04	1.6197	0.00189
1368.2	1.7836	9.19E-04	1.6197	0.00188
1371.6	1.7835	9.16E-04	1.6197	0.00187
1375.1	1.7834	9.14E-04	1.6196	0.00187
1378.5	1.7833	9.11E-04	1.6196	0.00186
1381.9	1.7833	9.08E-04	1.6196	0.00186
1385.4	1.7832	9.05E-04	1.6196	0.00185
1388.8	1.7831	9.02E-04	1.6195	0.00185
1392.3	1.783	8.99E-04	1.6195	0.00184
1395.7	1.783	8.96E-04	1.6195	0.00184
1399.1	1.7829	8.93E-04	1.6194	0.00183


