Wavelength (nm),n1.5_n,n1.5_k
250,1.5,0
300,1.5,0
350,1.5,0
400,1.5,0
450,1.5,0
500,1.5,0
550,1.5,0
600,1.5,0
650,1.5,0
700,1.5,0
750,1.5,0
800,1.5,0
850,1.5,0
900,1.5,0
950,1.5,0
1000,1.5,0
1050,1.5,0
1100,1.5,0
1150,1.5,0
1200,1.5,0
1250,1.5,0
