Wavelength (nm),n4_n,n4_k
250,4,0
300,4,0
350,4,0
400,4,0
450,4,0
500,4,0
550,4,0
600,4,0
650,4,0
700,4,0
750,4,0
800,4,0
850,4,0
900,4,0
950,4,0
1000,4,0
1050,4,0
1100,4,0
1150,4,0
1200,4,0
1250,4,0
